"163527 - RawData - C:\Users\User\Documents\Marte\Analysis\23-022\23-022B Trial 2.spc"
"Wavelength nm.","Abs."
200.00,1.922
200.50, 
201.00,1.891
201.50, 
202.00,1.833
202.50, 
203.00,1.773
203.50, 
204.00,1.707
204.50, 
205.00,1.634
205.50, 
206.00,1.561
206.50, 
207.00,1.496
207.50, 
208.00,1.435
208.50, 
209.00,1.380
209.50, 
210.00,1.322
210.50, 
211.00,1.271
211.50, 
212.00,1.226
212.50, 
213.00,1.180
213.50, 
214.00,1.137
214.50, 
215.00,1.097
215.50, 
216.00,1.060
216.50, 
217.00,1.024
217.50, 
218.00,0.992
218.50, 
219.00,0.961
219.50, 
220.00,0.931
220.50, 
221.00,0.904
221.50, 
222.00,0.876
222.50, 
223.00,0.847
223.50, 
224.00,0.819
224.50, 
225.00,0.792
225.50, 
226.00,0.766
226.50, 
227.00,0.740
227.50, 
228.00,0.713
228.50, 
229.00,0.687
229.50, 
230.00,0.663
230.50, 
231.00,0.638
231.50, 
232.00,0.613
232.50, 
233.00,0.590
233.50, 
234.00,0.569
234.50, 
235.00,0.550
235.50, 
236.00,0.532
236.50, 
237.00,0.516
237.50, 
238.00,0.501
238.50, 
239.00,0.489
239.50, 
240.00,0.477
240.50, 
241.00,0.468
241.50, 
242.00,0.459
242.50, 
243.00,0.451
243.50, 
244.00,0.445
244.50, 
245.00,0.440
245.50, 
246.00,0.436
246.50, 
247.00,0.432
247.50, 
248.00,0.429
248.50, 
249.00,0.426
249.50, 
250.00,0.423
250.50, 
251.00,0.421
251.50, 
252.00,0.419
252.50, 
253.00,0.418
253.50, 
254.00,0.417
254.50, 
255.00,0.416
255.50, 
256.00,0.415
256.50, 
257.00,0.414
257.50, 
258.00,0.413
258.50, 
259.00,0.412
259.50, 
260.00,0.412
260.50, 
261.00,0.411
261.50, 
262.00,0.410
262.50, 
263.00,0.408
263.50, 
264.00,0.407
264.50, 
265.00,0.406
265.50, 
266.00,0.405
266.50, 
267.00,0.403
267.50, 
268.00,0.402
268.50, 
269.00,0.400
269.50, 
270.00,0.398
270.50, 
271.00,0.396
271.50, 
272.00,0.393
272.50, 
273.00,0.391
273.50, 
274.00,0.388
274.50, 
275.00,0.385
275.50, 
276.00,0.382
276.50, 
277.00,0.379
277.50, 
278.00,0.375
278.50, 
279.00,0.370
279.50, 
280.00,0.366
280.50, 
281.00,0.362
281.50, 
282.00,0.357
282.50, 
283.00,0.352
283.50, 
284.00,0.347
284.50, 
285.00,0.341
285.50, 
286.00,0.335
286.50, 
287.00,0.329
287.50, 
288.00,0.323
288.50, 
289.00,0.318
289.50, 
290.00,0.313
290.50, 
291.00,0.307
291.50, 
292.00,0.302
292.50, 
293.00,0.297
293.50, 
294.00,0.292
294.50, 
295.00,0.286
295.50, 
296.00,0.281
296.50, 
297.00,0.277
297.50, 
298.00,0.273
298.50, 
299.00,0.269
299.50, 
300.00,0.265
300.50, 
301.00,0.261
301.50, 
302.00,0.258
302.50, 
303.00,0.255
303.50, 
304.00,0.252
304.50, 
305.00,0.250
305.50, 
306.00,0.248
306.50, 
307.00,0.244
307.50, 
308.00,0.242
308.50, 
309.00,0.240
309.50, 
310.00,0.238
310.50, 
311.00,0.236
311.50, 
312.00,0.234
312.50, 
313.00,0.232
313.50, 
314.00,0.231
314.50, 
315.00,0.229
315.50, 
316.00,0.227
316.50, 
317.00,0.226
317.50, 
318.00,0.225
318.50, 
319.00,0.224
319.50, 
320.00,0.223
320.50, 
321.00,0.222
321.50, 
322.00,0.221
322.50, 
323.00,0.220
323.50, 
324.00,0.218
324.50, 
325.00,0.217
325.50, 
326.00,0.217
326.50, 
327.00,0.216
327.50, 
328.00,0.214
328.50, 
329.00,0.213
329.50, 
330.00,0.212
330.50, 
331.00,0.211
331.50, 
332.00,0.209
332.50, 
333.00,0.208
333.50, 
334.00,0.207
334.50, 
335.00,0.206
335.50, 
336.00,0.205
336.50, 
337.00,0.205
337.50, 
338.00,0.203
338.50, 
339.00,0.201
339.50, 
340.00,0.200
340.50, 
341.00,0.199
341.50, 
342.00,0.197
342.50, 
343.00,0.196
343.50, 
344.00,0.194
344.50, 
345.00,0.192
345.50, 
346.00,0.190
346.50, 
347.00,0.189
347.50, 
348.00,0.188
348.50, 
349.00,0.187
349.50, 
350.00,0.185
350.50, 
351.00,0.183
351.50, 
352.00,0.182
352.50, 
353.00,0.180
353.50, 
354.00,0.179
354.50, 
355.00,0.178
355.50, 
356.00,0.177
356.50, 
357.00,0.175
357.50, 
358.00,0.174
358.50, 
359.00,0.172
359.50, 
360.00,0.171
360.50, 
361.00,0.170
361.50, 
362.00,0.169
362.50, 
363.00,0.168
363.50, 
364.00,0.167
364.50, 
365.00,0.164
365.50, 
366.00,0.161
366.50, 
367.00,0.160
367.50, 
368.00,0.160
368.50, 
369.00,0.159
369.50, 
370.00,0.157
370.50, 
371.00,0.156
371.50, 
372.00,0.155
372.50, 
373.00,0.154
373.50, 
374.00,0.152
374.50, 
375.00,0.151
375.50, 
376.00,0.150
376.50, 
377.00,0.149
377.50, 
378.00,0.148
378.50, 
379.00,0.147
379.50, 
380.00,0.146
380.50, 
381.00,0.145
381.50, 
382.00,0.143
382.50, 
383.00,0.142
383.50, 
384.00,0.141
384.50, 
385.00,0.140
385.50, 
386.00,0.139
386.50, 
387.00,0.138
387.50, 
388.00,0.137
388.50, 
389.00,0.136
389.50, 
390.00,0.135
390.50, 
391.00,0.134
391.50, 
392.00,0.133
392.50, 
393.00,0.132
393.50, 
394.00,0.131
394.50, 
395.00,0.130
395.50, 
396.00,0.130
396.50, 
397.00,0.128
397.50, 
398.00,0.128
398.50, 
399.00,0.127
399.50, 
400.00,0.126
400.50, 
401.00,0.125
401.50, 
402.00,0.124
402.50, 
403.00,0.123
403.50, 
404.00,0.123
404.50, 
405.00,0.122
405.50, 
406.00,0.121
406.50, 
407.00,0.121
407.50, 
408.00,0.120
408.50, 
409.00,0.120
409.50, 
410.00,0.119
410.50, 
411.00,0.118
411.50, 
412.00,0.118
412.50, 
413.00,0.117
413.50, 
414.00,0.116
414.50, 
415.00,0.116
415.50, 
416.00,0.115
416.50, 
417.00,0.114
417.50, 
418.00,0.113
418.50, 
419.00,0.112
419.50, 
420.00,0.112
420.50, 
421.00,0.111
421.50, 
422.00,0.110
422.50, 
423.00,0.109
423.50, 
424.00,0.109
424.50, 
425.00,0.108
425.50, 
426.00,0.107
426.50, 
427.00,0.106
427.50, 
428.00,0.105
428.50, 
429.00,0.105
429.50, 
430.00,0.104
430.50, 
431.00,0.103
431.50, 
432.00,0.102
432.50, 
433.00,0.102
433.50, 
434.00,0.101
434.50, 
435.00,0.101
435.50, 
436.00,0.100
436.50, 
437.00,0.099
437.50, 
438.00,0.099
438.50, 
439.00,0.098
439.50, 
440.00,0.097
440.50, 
441.00,0.097
441.50, 
442.00,0.096
442.50, 
443.00,0.095
443.50, 
444.00,0.094
444.50, 
445.00,0.094
445.50, 
446.00,0.093
446.50, 
447.00,0.093
447.50, 
448.00,0.092
448.50, 
449.00,0.091
449.50, 
450.00,0.090
450.50, 
451.00,0.089
451.50, 
452.00,0.089
452.50, 
453.00,0.088
453.50, 
454.00,0.088
454.50, 
455.00,0.087
455.50, 
456.00,0.086
456.50, 
457.00,0.086
457.50, 
458.00,0.085
458.50, 
459.00,0.085
459.50, 
460.00,0.084
460.50, 
461.00,0.084
461.50, 
462.00,0.084
462.50, 
463.00,0.083
463.50, 
464.00,0.083
464.50, 
465.00,0.082
465.50, 
466.00,0.082
466.50, 
467.00,0.082
467.50, 
468.00,0.081
468.50, 
469.00,0.081
469.50, 
470.00,0.080
470.50, 
471.00,0.080
471.50, 
472.00,0.080
472.50, 
473.00,0.079
473.50, 
474.00,0.079
474.50, 
475.00,0.079
475.50, 
476.00,0.078
476.50, 
477.00,0.078
477.50, 
478.00,0.078
478.50, 
479.00,0.077
479.50, 
480.00,0.077
480.50, 
481.00,0.077
481.50, 
482.00,0.076
482.50, 
483.00,0.076
483.50, 
484.00,0.076
484.50, 
485.00,0.075
485.50, 
486.00,0.075
486.50, 
487.00,0.075
487.50, 
488.00,0.074
488.50, 
489.00,0.074
489.50, 
490.00,0.074
490.50, 
491.00,0.073
491.50, 
492.00,0.073
492.50, 
493.00,0.073
493.50, 
494.00,0.073
494.50, 
495.00,0.072
495.50, 
496.00,0.072
496.50, 
497.00,0.072
497.50, 
498.00,0.072
498.50, 
499.00,0.071
499.50, 
500.00,0.071
500.50, 
501.00,0.071
501.50, 
502.00,0.071
502.50, 
503.00,0.070
503.50, 
504.00,0.070
504.50, 
505.00,0.070
505.50, 
506.00,0.070
506.50, 
507.00,0.069
507.50, 
508.00,0.069
508.50, 
509.00,0.069
509.50, 
510.00,0.069
510.50, 
511.00,0.069
511.50, 
512.00,0.068
512.50, 
513.00,0.068
513.50, 
514.00,0.068
514.50, 
515.00,0.068
515.50, 
516.00,0.068
516.50, 
517.00,0.067
517.50, 
518.00,0.067
518.50, 
519.00,0.067
519.50, 
520.00,0.067
520.50, 
521.00,0.067
521.50, 
522.00,0.066
522.50, 
523.00,0.066
523.50, 
524.00,0.066
524.50, 
525.00,0.066
525.50, 
526.00,0.066
526.50, 
527.00,0.066
527.50, 
528.00,0.065
528.50, 
529.00,0.065
529.50, 
530.00,0.065
530.50, 
531.00,0.065
531.50, 
532.00,0.064
532.50, 
533.00,0.064
533.50, 
534.00,0.064
534.50, 
535.00,0.064
535.50, 
536.00,0.064
536.50, 
537.00,0.064
537.50, 
538.00,0.063
538.50, 
539.00,0.063
539.50, 
540.00,0.063
540.50, 
541.00,0.063
541.50, 
542.00,0.063
542.50, 
543.00,0.063
543.50, 
544.00,0.063
544.50, 
545.00,0.063
545.50, 
546.00,0.063
546.50, 
547.00,0.063
547.50, 
548.00,0.063
548.50, 
549.00,0.062
549.50, 
550.00,0.062
550.50, 
551.00,0.062
551.50, 
552.00,0.062
552.50, 
553.00,0.062
553.50, 
554.00,0.062
554.50, 
555.00,0.062
555.50, 
556.00,0.062
556.50, 
557.00,0.062
557.50, 
558.00,0.062
558.50, 
559.00,0.062
559.50, 
560.00,0.062
560.50, 
561.00,0.062
561.50, 
562.00,0.062
562.50, 
563.00,0.062
563.50, 
564.00,0.062
564.50, 
565.00,0.062
565.50, 
566.00,0.062
566.50, 
567.00,0.062
567.50, 
568.00,0.062
568.50, 
569.00,0.062
569.50, 
570.00,0.062
570.50, 
571.00,0.062
571.50, 
572.00,0.062
572.50, 
573.00,0.062
573.50, 
574.00,0.062
574.50, 
575.00,0.062
575.50, 
576.00,0.062
576.50, 
577.00,0.062
577.50, 
578.00,0.062
578.50, 
579.00,0.062
579.50, 
580.00,0.062
580.50, 
581.00,0.062
581.50, 
582.00,0.062
582.50, 
583.00,0.061
583.50, 
584.00,0.061
584.50, 
585.00,0.061
585.50, 
586.00,0.061
586.50, 
587.00,0.061
587.50, 
588.00,0.061
588.50, 
589.00,0.061
589.50, 
590.00,0.061
590.50, 
591.00,0.060
591.50, 
592.00,0.060
592.50, 
593.00,0.060
593.50, 
594.00,0.060
594.50, 
595.00,0.060
595.50, 
596.00,0.059
596.50, 
597.00,0.059
597.50, 
598.00,0.059
598.50, 
599.00,0.059
599.50, 
600.00,0.059
600.50, 
601.00,0.059
601.50, 
602.00,0.058
602.50, 
603.00,0.058
603.50, 
604.00,0.058
604.50, 
605.00,0.058
605.50, 
606.00,0.058
606.50, 
607.00,0.058
607.50, 
608.00,0.057
608.50, 
609.00,0.057
609.50, 
610.00,0.057
610.50, 
611.00,0.057
611.50, 
612.00,0.057
612.50, 
613.00,0.057
613.50, 
614.00,0.057
614.50, 
615.00,0.057
615.50, 
616.00,0.057
616.50, 
617.00,0.057
617.50, 
618.00,0.057
618.50, 
619.00,0.057
619.50, 
620.00,0.057
620.50, 
621.00,0.057
621.50, 
622.00,0.057
622.50, 
623.00,0.057
623.50, 
624.00,0.057
624.50, 
625.00,0.057
625.50, 
626.00,0.056
626.50, 
627.00,0.056
627.50, 
628.00,0.056
628.50, 
629.00,0.056
629.50, 
630.00,0.055
630.50, 
631.00,0.055
631.50, 
632.00,0.055
632.50, 
633.00,0.054
633.50, 
634.00,0.054
634.50, 
635.00,0.053
635.50, 
636.00,0.053
636.50, 
637.00,0.052
637.50, 
638.00,0.052
638.50, 
639.00,0.051
639.50, 
640.00,0.050
640.50, 
641.00,0.050
641.50, 
642.00,0.049
642.50, 
643.00,0.049
643.50, 
644.00,0.048
644.50, 
645.00,0.048
645.50, 
646.00,0.047
646.50, 
647.00,0.047
647.50, 
648.00,0.046
648.50, 
649.00,0.046
649.50, 
650.00,0.045
650.50, 
651.00,0.045
651.50, 
652.00,0.045
652.50, 
653.00,0.044
653.50, 
654.00,0.044
654.50, 
655.00,0.044
655.50, 
656.00,0.044
656.50, 
657.00,0.043
657.50, 
658.00,0.043
658.50, 
659.00,0.043
659.50, 
660.00,0.043
660.50, 
661.00,0.042
661.50, 
662.00,0.042
662.50, 
663.00,0.042
663.50, 
664.00,0.042
664.50, 
665.00,0.042
665.50, 
666.00,0.042
666.50, 
667.00,0.042
667.50, 
668.00,0.041
668.50, 
669.00,0.041
669.50, 
670.00,0.041
670.50, 
671.00,0.041
671.50, 
672.00,0.041
672.50, 
673.00,0.041
673.50, 
674.00,0.040
674.50, 
675.00,0.040
675.50, 
676.00,0.040
676.50, 
677.00,0.040
677.50, 
678.00,0.040
678.50, 
679.00,0.039
679.50, 
680.00,0.039
680.50, 
681.00,0.039
681.50, 
682.00,0.038
682.50, 
683.00,0.038
683.50, 
684.00,0.038
684.50, 
685.00,0.037
685.50, 
686.00,0.037
686.50, 
687.00,0.037
687.50, 
688.00,0.037
688.50, 
689.00,0.036
689.50, 
690.00,0.036
690.50, 
691.00,0.036
691.50, 
692.00,0.035
692.50, 
693.00,0.035
693.50, 
694.00,0.035
694.50, 
695.00,0.035
695.50, 
696.00,0.034
696.50, 
697.00,0.034
697.50, 
698.00,0.034
698.50, 
699.00,0.034
699.50, 
700.00,0.034
700.50, 
701.00,0.034
701.50, 
702.00,0.033
702.50, 
703.00,0.033
703.50, 
704.00,0.033
704.50, 
705.00,0.033
705.50, 
706.00,0.033
706.50, 
707.00,0.033
707.50, 
708.00,0.032
708.50, 
709.00,0.032
709.50, 
710.00,0.032
710.50, 
711.00,0.032
711.50, 
712.00,0.032
712.50, 
713.00,0.032
713.50, 
714.00,0.032
714.50, 
715.00,0.031
715.50, 
716.00,0.031
716.50, 
717.00,0.031
717.50, 
718.00,0.031
718.50, 
719.00,0.031
719.50, 
720.00,0.031
720.50, 
721.00,0.031
721.50, 
722.00,0.031
722.50, 
723.00,0.031
723.50, 
724.00,0.030
724.50, 
725.00,0.030
725.50, 
726.00,0.030
726.50, 
727.00,0.030
727.50, 
728.00,0.030
728.50, 
729.00,0.030
729.50, 
730.00,0.030
730.50, 
731.00,0.030
731.50, 
732.00,0.029
732.50, 
733.00,0.029
733.50, 
734.00,0.029
734.50, 
735.00,0.029
735.50, 
736.00,0.029
736.50, 
737.00,0.029
737.50, 
738.00,0.029
738.50, 
739.00,0.029
739.50, 
740.00,0.029
740.50, 
741.00,0.029
741.50, 
742.00,0.029
742.50, 
743.00,0.029
743.50, 
744.00,0.028
744.50, 
745.00,0.028
745.50, 
746.00,0.028
746.50, 
747.00,0.028
747.50, 
748.00,0.028
748.50, 
749.00,0.028
749.50, 
750.00,0.028
750.50, 
751.00,0.028
751.50, 
752.00,0.028
752.50, 
753.00,0.028
753.50, 
754.00,0.028
754.50, 
755.00,0.028
755.50, 
756.00,0.027
756.50, 
757.00,0.027
757.50, 
758.00,0.027
758.50, 
759.00,0.027
759.50, 
760.00,0.027
760.50, 
761.00,0.027
761.50, 
762.00,0.027
762.50, 
763.00,0.027
763.50, 
764.00,0.027
764.50, 
765.00,0.027
765.50, 
766.00,0.027
766.50, 
767.00,0.027
767.50, 
768.00,0.027
768.50, 
769.00,0.026
769.50, 
770.00,0.026
770.50, 
771.00,0.026
771.50, 
772.00,0.026
772.50, 
773.00,0.026
773.50, 
774.00,0.026
774.50, 
775.00,0.026
775.50, 
776.00,0.026
776.50, 
777.00,0.026
777.50, 
778.00,0.026
778.50, 
779.00,0.026
779.50, 
780.00,0.026
780.50, 
781.00,0.026
781.50, 
782.00,0.026
782.50, 
783.00,0.026
783.50, 
784.00,0.026
784.50, 
785.00,0.026
785.50, 
786.00,0.026
786.50, 
787.00,0.025
787.50, 
788.00,0.025
788.50, 
789.00,0.025
789.50, 
790.00,0.025
790.50, 
791.00,0.025
791.50, 
792.00,0.025
792.50, 
793.00,0.025
793.50, 
794.00,0.025
794.50, 
795.00,0.025
795.50, 
796.00,0.025
796.50, 
797.00,0.025
797.50, 
798.00,0.025
798.50, 
799.00,0.025
799.50, 
800.00,0.025
800.50, 
801.00,0.025
801.50, 
802.00,0.025
802.50, 
803.00,0.024
803.50, 
804.00,0.024
804.50, 
805.00,0.024
805.50, 
806.00,0.024
806.50, 
807.00,0.024
807.50, 
808.00,0.024
808.50, 
809.00,0.024
809.50, 
810.00,0.024
810.50, 
811.00,0.024
811.50, 
812.00,0.024
812.50, 
813.00,0.024
813.50, 
814.00,0.024
814.50, 
815.00,0.024
815.50, 
816.00,0.024
816.50, 
817.00,0.024
817.50, 
818.00,0.023
818.50, 
819.00,0.023
819.50, 
820.00,0.023
820.50, 
821.00,0.023
821.50, 
822.00,0.023
822.50, 
823.00,0.023
823.50, 
824.00,0.023
824.50, 
825.00,0.023
825.50, 
826.00,0.023
826.50, 
827.00,0.023
827.50, 
828.00,0.023
828.50, 
829.00,0.023
829.50, 
830.00,0.023
830.50, 
831.00,0.022
831.50, 
832.00,0.022
832.50, 
833.00,0.022
833.50, 
834.00,0.022
834.50, 
835.00,0.022
835.50, 
836.00,0.022
836.50, 
837.00,0.022
837.50, 
838.00,0.022
838.50, 
839.00,0.022
839.50, 
840.00,0.022
840.50, 
841.00,0.022
841.50, 
842.00,0.022
842.50, 
843.00,0.022
843.50, 
844.00,0.022
844.50, 
845.00,0.022
845.50, 
846.00,0.022
846.50, 
847.00,0.022
847.50, 
848.00,0.022
848.50, 
849.00,0.022
849.50, 
850.00,0.022
850.50, 
851.00,0.022
851.50, 
852.00,0.022
852.50, 
853.00,0.022
853.50, 
854.00,0.022
854.50, 
855.00,0.022
855.50, 
856.00,0.022
856.50, 
857.00,0.022
857.50, 
858.00,0.022
858.50, 
859.00,0.022
859.50, 
860.00,0.021
860.50, 
861.00,0.021
861.50, 
862.00,0.021
862.50, 
863.00,0.021
863.50, 
864.00,0.021
864.50, 
865.00,0.021
865.50, 
866.00,0.021
866.50, 
867.00,0.021
867.50, 
868.00,0.021
868.50, 
869.00,0.021
869.50, 
870.00,0.021
870.50, 
871.00,0.021
871.50, 
872.00,0.021
872.50, 
873.00,0.021
873.50, 
874.00,0.021
874.50, 
875.00,0.021
875.50, 
876.00,0.021
876.50, 
877.00,0.020
877.50, 
878.00,0.020
878.50, 
879.00,0.020
879.50, 
880.00,0.020
880.50, 
881.00,0.020
881.50, 
882.00,0.020
882.50, 
883.00,0.020
883.50, 
884.00,0.020
884.50, 
885.00,0.020
885.50, 
886.00,0.020
886.50, 
887.00,0.020
887.50, 
888.00,0.020
888.50, 
889.00,0.020
889.50, 
890.00,0.020
890.50, 
891.00,0.020
891.50, 
892.00,0.020
892.50, 
893.00,0.020
893.50, 
894.00,0.019
894.50, 
895.00,0.019
895.50, 
896.00,0.019
896.50, 
897.00,0.019
897.50, 
898.00,0.019
898.50, 
899.00,0.019
899.50, 
900.00,0.019
